File: resources/data/CeO2_XRD_start12_step16_num4_AlStop_00000_vs2q.txt
 	2q	Intensity
1	-3.570	95.679
3	-3.442	79.901
5	-3.314	58.868
7	-3.186	29.092
9	-3.058	3.871
11	-2.931	1.779
13	-2.803	2.005
15	-2.675	1.872
17	-2.547	1.865
19	-2.419	1.633
21	-2.291	1.878
23	-2.163	1.602
25	-2.035	1.682
27	-1.907	1.582
29	-1.780	1.942
31	-1.652	1.707
33	-1.524	1.713
35	-1.396	1.696
37	-1.268	1.811
39	-1.140	1.751
41	-1.012	1.738
43	-0.884	1.628
45	-0.756	1.939
47	-0.629	1.582
49	-0.501	1.660
51	-0.373	1.550
53	-0.245	1.176
55	-0.117	2.521
57	0.011	1.776
59	0.139	153.042
61	0.267	74.591
63	0.394	2.592
65	0.522	1.329
67	0.650	1.700
69	0.778	1.732
71	0.906	1.712
73	1.034	1.814
75	1.162	1.851
77	1.290	1.551
79	1.418	1.786
81	1.545	1.721
83	1.673	1.589
85	1.801	1.961
87	1.929	1.835
89	2.057	1.776
91	2.185	1.917
93	2.313	1.857
95	2.441	1.809
97	2.569	2.897
99	2.696	17.180
101	2.824	65.265
103	2.952	95.056
105	3.080	117.398
107	3.208	136.987
109	3.336	154.248
111	3.464	172.277
113	3.592	187.091
115	3.719	201.811
117	3.847	218.107
119	3.975	234.733
121	4.103	245.460
123	4.231	252.707
125	4.359	261.248
127	4.487	264.832
129	4.615	270.344
131	4.743	273.270
133	4.870	280.161
135	4.998	286.659
137	5.126	290.045
139	5.254	299.449
141	5.382	303.595
143	5.510	306.492
145	5.638	311.714
147	5.766	314.703
149	5.894	316.708
151	6.021	316.935
153	6.149	321.918
155	6.277	323.317
157	6.405	325.955
159	6.533	327.446
161	6.661	329.460
163	6.789	331.706
165	6.917	334.755
167	7.044	333.911
169	7.172	335.667
171	7.300	335.760
173	7.428	336.408
175	7.556	340.600
177	7.684	345.305
179	7.812	348.999
181	7.940	351.199
183	8.068	349.453
185	8.195	349.876
187	8.323	350.160
189	8.451	350.587
191	8.579	347.484
193	8.707	347.600
195	8.835	346.558
197	8.963	345.476
199	9.091	343.516
201	9.219	343.794
203	9.346	339.883
205	9.474	338.634
207	9.602	338.050
209	9.730	336.398
211	9.858	334.471
213	9.986	331.330
215	10.114	332.067
217	10.242	330.183
219	10.369	328.366
221	10.497	325.799
223	10.625	324.474
225	10.753	324.220
227	10.881	322.729
229	11.009	320.125
231	11.137	318.824
233	11.265	318.703
235	11.393	317.913
237	11.520	317.842
239	11.648	315.389
241	11.776	314.373
243	11.904	313.662
245	12.032	313.996
247	12.160	314.187
249	12.288	312.470
251	12.416	311.147
253	12.544	309.015
255	12.671	308.229
257	12.799	306.940
259	12.927	305.842
261	13.055	305.828
263	13.183	303.099
265	13.311	303.570
267	13.439	300.446
269	13.567	301.604
271	13.694	300.026
273	13.822	295.953
275	13.950	295.486
277	14.078	293.713
279	14.206	293.868
281	14.334	290.595
283	14.462	290.044
285	14.590	289.203
287	14.718	287.474
289	14.845	287.644
291	14.973	283.503
293	15.101	284.386
295	15.229	282.295
297	15.357	279.916
299	15.485	279.442
301	15.613	279.433
303	15.741	277.098
305	15.869	275.911
307	15.996	275.345
309	16.124	274.255
311	16.252	273.053
313	16.380	270.531
315	16.508	267.931
317	16.636	266.327
319	16.764	263.393
321	16.892	262.041
323	17.019	259.671
325	17.147	257.143
327	17.275	258.169
329	17.403	254.456
331	17.531	250.194
333	17.659	248.409
335	17.787	246.646
337	17.915	243.256
339	18.043	243.067
341	18.170	239.461
343	18.298	236.439
345	18.426	236.373
347	18.554	231.687
349	18.682	231.736
351	18.810	228.671
353	18.938	227.544
355	19.066	224.074
357	19.194	223.226
359	19.321	222.560
361	19.449	219.484
363	19.577	217.651
365	19.705	217.493
367	19.833	220.755
369	19.961	215.244
371	20.089	214.570
373	20.217	213.070
375	20.344	211.301
377	20.472	207.828
379	20.600	208.482
381	20.728	207.347
383	20.856	207.990
385	20.984	207.254
387	21.112	208.747
389	21.240	211.076
391	21.368	213.597
393	21.495	221.472
395	21.623	228.851
397	21.751	252.367
399	21.879	295.806
401	22.007	421.246
403	22.135	1035.379
405	22.263	9904.745
407	22.391	4954.834
409	22.519	728.551
411	22.646	353.289
413	22.774	263.332
415	22.902	226.204
417	23.030	207.140
419	23.158	196.451
421	23.286	188.386
423	23.414	182.226
425	23.542	177.650
427	23.669	174.986
429	23.797	174.026
431	23.925	173.269
433	24.053	169.686
435	24.181	168.023
437	24.309	166.937
439	24.437	165.190
441	24.565	163.452
443	24.693	163.098
445	24.820	161.855
447	24.948	162.395
449	25.076	163.061
451	25.204	166.809
453	25.332	178.099
455	25.460	202.315
457	25.588	309.475
459	25.716	1818.105
461	25.844	2128.197
463	25.971	343.123
465	26.099	197.384
467	26.227	166.943
469	26.355	155.316
471	26.483	149.730
473	26.611	145.342
475	26.739	142.374
477	26.867	142.025
479	26.994	139.667
481	27.122	137.689
483	27.250	137.066
485	27.378	135.212
487	27.506	135.330