File: resources/data/CeO2_XRD_start12_step16_num4_AlStop_00001_vs2q.txt
 	2q	Intensity
1	12.430	259.001
3	12.558	280.974
5	12.686	280.592
7	12.814	280.063
9	12.942	280.921
11	13.069	279.299
13	13.197	276.340
15	13.325	275.471
17	13.453	274.619
19	13.581	273.686
21	13.709	272.899
23	13.837	271.548
25	13.965	271.005
27	14.093	270.843
29	14.220	269.055
31	14.348	268.150
33	14.476	263.830
35	14.604	265.017
37	14.732	264.268
39	14.860	264.538
41	14.988	264.274
43	15.116	263.336
45	15.244	263.312
47	15.371	260.244
49	15.499	261.296
51	15.627	261.140
53	15.755	259.279
55	15.883	260.427
57	16.011	259.141
59	16.139	258.809
61	16.267	259.204
63	16.394	257.987
65	16.522	255.114
67	16.650	253.735
69	16.778	252.737
71	16.906	251.395
73	17.034	249.661
75	17.162	247.593
77	17.290	247.308
79	17.418	243.860
81	17.545	242.937
83	17.673	240.834
85	17.801	238.827
87	17.929	239.260
89	18.057	236.884
91	18.185	233.975
93	18.313	232.625
95	18.441	231.738
97	18.569	228.651
99	18.696	228.192
101	18.824	226.616
103	18.952	224.373
105	19.080	223.094
107	19.208	222.429
109	19.336	219.801
111	19.464	220.002
113	19.592	219.752
115	19.719	216.894
117	19.847	218.180
119	19.975	216.292
121	20.103	215.180
123	20.231	215.080
125	20.359	212.074
127	20.487	211.045
129	20.615	212.456
131	20.743	211.048
133	20.870	208.538
135	20.998	210.341
137	21.126	212.187
139	21.254	212.243
141	21.382	217.811
143	21.510	221.859
145	21.638	229.815
147	21.766	242.903
149	21.894	271.396
151	22.021	338.578
153	22.149	558.550
155	22.277	2605.800
157	22.405	11688.558
159	22.533	2360.169
161	22.661	538.036
163	22.789	320.314
165	22.917	257.339
167	23.044	227.412
169	23.172	212.823
171	23.300	204.779
173	23.428	198.380
175	23.556	192.312
177	23.684	189.301
179	23.812	187.302
181	23.940	186.526
183	24.068	185.343
185	24.195	183.388
187	24.323	181.236
189	24.451	180.599
191	24.579	179.356
193	24.707	179.208
195	24.835	178.441
197	24.963	177.730
199	25.091	179.581
201	25.219	183.175
203	25.346	189.259
205	25.474	204.143
207	25.602	252.148
209	25.730	609.122
211	25.858	3204.193
213	25.986	1083.511
215	26.114	281.223
217	26.242	203.752
219	26.369	181.989
221	26.497	174.160
223	26.625	166.879
225	26.753	164.424
227	26.881	163.035
229	27.009	160.532
231	27.137	160.610
233	27.265	158.443
235	27.393	159.741
237	27.520	157.815
239	27.648	156.230
241	27.776	155.107
243	27.904	155.374
245	28.032	156.740
247	28.160	157.735
249	28.288	154.049
251	28.416	153.427
253	28.544	153.558
255	28.671	151.675
257	28.799	150.695
259	28.927	148.130
261	29.055	147.282
263	29.183	149.068
265	29.311	148.673
267	29.439	146.944
269	29.567	146.109
271	29.694	144.909
273	29.822	145.157
275	29.950	143.887
277	30.078	142.742
279	30.206	141.901
281	30.334	141.713
283	30.462	141.555
285	30.590	140.607
287	30.718	141.164
289	30.845	140.912
291	30.973	139.966
293	31.101	140.716
295	31.229	139.598
297	31.357	139.934
299	31.485	140.369
301	31.613	140.613
303	31.741	140.950
305	31.869	140.597
307	31.996	141.130
309	32.124	140.984
311	32.252	140.036
313	32.380	139.030
315	32.508	138.050
317	32.636	137.571
319	32.764	136.414
321	32.892	135.257
323	33.019	135.541
325	33.147	134.851
327	33.275	134.998
329	33.403	133.529
331	33.531	133.820
333	33.659	132.189
335	33.787	131.963
337	33.915	131.306
339	34.043	131.715
341	34.170	131.083
343	34.298	131.756
345	34.426	131.520
347	34.554	130.167
349	34.682	130.654
351	34.810	130.768
353	34.938	131.455
355	35.066	131.073
357	35.194	132.210
359	35.321	132.103
361	35.449	134.358
363	35.577	136.233
365	35.705	137.196
367	35.833	139.428
369	35.961	146.351
371	36.089	153.915
373	36.217	165.243
375	36.344	188.927
377	36.472	252.264
379	36.600	502.401
381	36.728	3517.745
383	36.856	4169.814
385	36.984	611.062
387	37.112	257.356
389	37.240	184.500
391	37.368	155.975
393	37.495	142.113
395	37.623	134.971
397	37.751	130.480
399	37.879	126.866
401	38.007	123.833
403	38.135	122.793
405	38.263	121.247
407	38.391	120.410
409	38.519	118.473
411	38.646	116.835
413	38.774	116.088
415	38.902	114.696
417	39.030	115.186
419	39.158	113.723
421	39.286	112.465
423	39.414	113.191
425	39.542	112.247
427	39.669	111.317
429	39.797	112.499
431	39.925	112.731
433	40.053	111.170
435	40.181	109.426
437	40.309	109.067
439	40.437	108.345
441	40.565	108.123
443	40.693	107.415
445	40.820	106.742
447	40.948	105.848
449	41.076	104.798
451	41.204	104.037
453	41.332	103.459
455	41.460	103.417
457	41.588	105.393
459	41.716	103.125
461	41.844	103.401
463	41.971	103.814
465	42.099	104.210
467	42.227	104.633
469	42.355	107.133
471	42.483	109.626
473	42.611	112.979
475	42.739	119.329
477	42.867	132.636
479	42.994	159.771
481	43.122	232.994
483	43.250	640.955
485	43.378	4409.959
487	43.506	1498.548