File: resources/data/CeO2_XRD_start12_step16_num4_AlStop_00003_vs2q.txt
 	2q	Intensity
1	44.430	114.000
3	44.558	106.524
5	44.686	103.943
7	44.814	103.287
9	44.942	103.283
11	45.069	104.437
13	45.197	109.254
15	45.325	123.042
17	45.453	205.210
19	45.581	867.750
21	45.709	398.543
23	45.837	139.429
25	45.965	110.402
27	46.093	101.567
29	46.220	98.187
31	46.348	95.586
33	46.476	93.759
35	46.604	93.738
37	46.732	92.602
39	46.860	92.132
41	46.988	91.999
43	47.116	92.284
45	47.244	91.780
47	47.371	91.756
49	47.499	91.557
51	47.627	91.440
53	47.755	91.876
55	47.883	90.499
57	48.011	90.871
59	48.139	91.921
61	48.267	92.523
63	48.394	91.236
65	48.522	89.511
67	48.650	89.193
69	48.778	88.483
71	48.906	88.501
73	49.034	87.388
75	49.162	88.577
77	49.290	86.926
79	49.418	86.960
81	49.545	87.403
83	49.673	86.316
85	49.801	85.789
87	49.929	86.121
89	50.057	86.702
91	50.185	86.300
93	50.313	86.250
95	50.441	87.039
97	50.569	85.847
99	50.696	87.086
101	50.824	85.710
103	50.952	87.037
105	51.080	87.012
107	51.208	86.489
109	51.336	86.506
111	51.464	86.014
113	51.592	85.714
115	51.719	86.048
117	51.847	84.864
119	51.975	87.860
121	52.103	88.888
123	52.231	88.074
125	52.359	88.788
127	52.487	90.087
129	52.615	92.248
131	52.743	99.722
133	52.870	119.984
135	52.998	319.359
137	53.126	814.369
139	53.254	199.012
141	53.382	108.676
143	53.510	93.807
145	53.638	89.049
147	53.766	86.747
149	53.894	84.578
151	54.021	84.033
153	54.149	82.949
155	54.277	84.083
157	54.405	82.776
159	54.533	82.188
161	54.661	81.785
163	54.789	80.973
165	54.917	80.988
167	55.044	81.585
169	55.172	81.279
171	55.300	81.392
173	55.428	81.181
175	55.556	81.051
177	55.684	80.276
179	55.812	80.024
181	55.940	81.915
183	56.068	82.780
185	56.195	81.935
187	56.323	80.854
189	56.451	80.067
191	56.579	80.297
193	56.707	80.838
195	56.835	80.280
197	56.963	81.262
199	57.091	81.528
201	57.219	82.240
203	57.346	82.939
205	57.474	83.668
207	57.602	87.724
209	57.730	92.859
211	57.858	104.211
213	57.986	139.039
215	58.114	342.200
217	58.242	1413.055
219	58.369	631.389
221	58.497	167.420
223	58.625	110.105
225	58.753	94.151
227	58.881	89.120
229	59.009	84.836
231	59.137	84.321
233	59.265	84.019
235	59.393	86.597
237	59.520	92.443
239	59.648	113.557
241	59.776	248.381
243	59.904	851.778
245	60.032	430.523
247	60.160	134.325
249	60.288	91.988
251	60.416	81.836
253	60.544	77.291
255	60.671	74.261
257	60.799	72.435
259	60.927	71.043
261	61.055	70.073
263	61.183	69.293
265	61.311	68.913
267	61.439	68.054
269	61.567	66.664
271	61.694	67.058
273	61.822	65.280
275	61.950	65.931
277	62.078	65.516
279	62.206	65.332
281	62.334	64.721
283	62.462	64.456
285	62.590	64.653
287	62.718	64.027
289	62.845	63.882
291	62.973	63.608
293	63.101	63.116
295	63.229	62.182
297	63.357	63.152
299	63.485	61.607
301	63.613	62.166
303	63.741	62.203
305	63.869	62.526
307	63.996	62.085
309	64.124	61.917
311	64.252	61.134
313	64.380	59.833
315	64.508	60.420
317	64.636	59.754
319	64.764	59.178
321	64.892	59.893
323	65.019	60.154
325	65.147	60.555
327	65.275	60.114
329	65.403	60.472
331	65.531	61.506
333	65.659	63.697
335	65.787	67.920
337	65.915	77.543
339	66.043	110.258
341	66.170	306.476
343	66.298	909.618
345	66.426	319.769
347	66.554	106.420
349	66.682	74.120
351	66.810	63.832
353	66.938	59.315
355	67.066	56.149
357	67.194	54.746
359	67.321	52.752
361	67.449	52.282
363	67.577	52.279
365	67.705	51.044
367	67.833	50.872
369	67.961	50.701
371	68.089	50.145
373	68.217	49.104
375	68.344	49.029
377	68.472	48.042
379	68.600	47.972
381	68.728	47.084
383	68.856	46.658
385	68.984	46.194
387	69.112	46.615
389	69.240	45.594
391	69.368	45.330
393	69.495	45.659
395	69.623	45.384
397	69.751	45.394
399	69.879	45.342
401	70.007	45.256
403	70.135	46.600
405	70.263	46.762
407	70.391	49.913
409	70.519	56.688
411	70.646	78.544
413	70.774	227.541
415	70.902	589.630
417	71.030	154.338
419	71.158	66.841
421	71.286	51.530
423	71.414	45.510
425	71.542	43.215
427	71.669	41.766
429	71.797	40.903
431	71.925	40.675
433	72.053	38.913
435	72.181	38.611
437	72.309	37.177
439	72.437	37.627
441	72.565	36.319
443	72.693	36.393
445	72.820	36.014
447	72.948	35.380
449	73.076	35.129
451	73.204	34.662
453	73.332	33.926
455	73.460	34.079
457	73.588	33.263
459	73.716	33.226
461	73.844	32.708
463	73.971	31.826
465	74.099	32.305
467	74.227	31.204
469	74.355	31.530
471	74.483	31.561
473	74.611	30.520
475	74.739	30.868
477	74.867	29.967
479	74.994	30.220
481	75.122	29.715
483	75.250	29.814
485	75.378	29.541
487	75.506	29.204