File: resources/data/CeO2_XRD_start12_step16_num4_AlStop_00002_vs2q.txt
 	2q	Intensity
1	28.430	143.000
3	28.558	138.466
5	28.686	134.777
7	28.814	134.118
9	28.942	133.652
11	29.069	133.444
13	29.197	132.258
15	29.325	132.110
17	29.453	131.029
19	29.581	131.926
21	29.709	131.351
23	29.837	130.622
25	29.965	131.337
27	30.093	130.166
29	30.220	129.754
31	30.348	129.769
33	30.476	130.104
35	30.604	129.366
37	30.732	129.364
39	30.860	129.886
41	30.988	129.934
43	31.116	130.780
45	31.244	130.470
47	31.371	130.606
49	31.499	129.728
51	31.627	129.786
53	31.755	130.169
55	31.883	129.833
57	32.011	131.106
59	32.139	131.951
61	32.267	132.846
63	32.394	131.984
65	32.522	130.849
67	32.650	129.803
69	32.778	131.564
71	32.906	130.866
73	33.034	131.333
75	33.162	128.809
77	33.290	128.552
79	33.418	127.783
81	33.545	128.101
83	33.673	128.715
85	33.801	127.333
87	33.929	128.262
89	34.057	127.220
91	34.185	127.600
93	34.313	128.775
95	34.441	128.596
97	34.569	127.773
99	34.696	128.060
101	34.824	129.353
103	34.952	129.473
105	35.080	130.934
107	35.208	130.993
109	35.336	131.173
111	35.464	132.719
113	35.592	134.269
115	35.719	135.658
117	35.847	138.957
119	35.975	143.936
121	36.103	150.444
123	36.231	158.999
125	36.359	173.811
127	36.487	207.902
129	36.615	305.829
131	36.743	878.493
133	36.870	6395.233
135	36.998	1914.366
137	37.126	398.327
139	37.254	223.859
141	37.382	174.683
143	37.510	154.755
145	37.638	146.404
147	37.766	137.347
149	37.894	134.524
151	38.021	130.119
153	38.149	127.889
155	38.277	127.719
157	38.405	125.916
159	38.533	124.394
161	38.661	124.200
163	38.789	122.525
165	38.917	122.368
167	39.044	122.231
169	39.172	122.103
171	39.300	120.867
173	39.428	120.396
175	39.556	121.143
177	39.684	120.161
179	39.812	120.657
181	39.940	121.800
183	40.068	122.031
185	40.195	120.712
187	40.323	119.726
189	40.451	118.774
191	40.579	118.943
193	40.707	117.884
195	40.835	117.240
197	40.963	117.219
199	41.091	117.262
201	41.219	116.618
203	41.346	117.108
205	41.474	116.309
207	41.602	116.718
209	41.730	116.791
211	41.858	117.085
213	41.986	117.778
215	42.114	117.401
217	42.242	118.090
219	42.369	119.712
221	42.497	122.399
223	42.625	124.538
225	42.753	131.575
227	42.881	140.128
229	43.009	160.731
231	43.137	204.179
233	43.265	354.154
235	43.393	1813.490
237	43.520	4391.099
239	43.648	785.160
241	43.776	257.965
243	43.904	174.511
245	44.032	147.129
247	44.160	134.254
249	44.288	125.880
251	44.416	120.662
253	44.544	117.586
255	44.671	116.054
257	44.799	114.895
259	44.927	116.972
261	45.055	118.046
263	45.183	129.594
265	45.311	167.004
267	45.439	557.335
269	45.567	791.422
271	45.694	195.128
273	45.822	127.891
275	45.950	113.516
277	46.078	107.638
279	46.206	104.648
281	46.334	103.378
283	46.462	102.904
285	46.590	100.886
287	46.718	101.519
289	46.845	99.722
291	46.973	99.440
293	47.101	98.486
295	47.229	97.937
297	47.357	98.188
299	47.485	98.265
301	47.613	96.932
303	47.741	97.725
305	47.869	96.303
307	47.996	97.669
309	48.124	98.291
311	48.252	95.542
313	48.380	94.231
315	48.508	94.503
317	48.636	92.749
319	48.764	93.255
321	48.892	93.156
323	49.019	93.149
325	49.147	91.727
327	49.275	91.219
329	49.403	90.594
331	49.531	90.052
333	49.659	89.985
335	49.787	89.511
337	49.915	89.188
339	50.043	88.881
341	50.170	88.066
343	50.298	88.580
345	50.426	88.905
347	50.554	87.908
349	50.682	87.577
351	50.810	87.874
353	50.938	87.141
355	51.066	86.624
357	51.194	86.994
359	51.321	86.414
361	51.449	86.230
363	51.577	86.021
365	51.705	85.667
367	51.833	87.917
369	51.961	87.757
371	52.089	88.563
373	52.217	87.901
375	52.344	89.348
377	52.472	89.713
379	52.600	94.664
381	52.728	107.749
383	52.856	180.126
385	52.984	864.910
387	53.112	329.930
389	53.240	119.049
391	53.368	93.902
393	53.495	86.930
395	53.623	84.936
397	53.751	82.699
399	53.879	80.836
401	54.007	79.707
403	54.135	79.471
405	54.263	79.097
407	54.391	78.610
409	54.519	77.028
411	54.646	77.596
413	54.774	77.410
415	54.902	77.027
417	55.030	76.374
419	55.158	76.703
421	55.286	76.423
423	55.414	75.267
425	55.542	74.241
427	55.669	75.572
429	55.797	75.541
431	55.925	76.162
433	56.053	75.423
435	56.181	72.842
437	56.309	73.872
439	56.437	73.052
441	56.565	73.886
443	56.693	73.040
445	56.820	73.711
447	56.948	74.016
449	57.076	73.278
451	57.204	74.044
453	57.332	74.871
455	57.460	76.933
457	57.588	80.300
459	57.716	88.432
461	57.844	105.331
463	57.971	176.199
465	58.099	797.008
467	58.227	1090.929
469	58.355	214.377
471	58.483	110.518
473	58.611	87.271
475	58.739	79.818
477	58.867	75.694
479	58.994	72.592
481	59.122	72.864
483	59.250	74.492
485	59.378	77.119
487	59.506	87.570