File: resources/data/CeO2_XRD_start12_step16_num4_AlStop_00000_Stitched_vs2q.txt
 	2q	Intensity
1	-3.570	95.695
6	-3.250	46.585
11	-2.931	1.779
16	-2.611	1.809
21	-2.291	1.877
26	-1.972	1.744
31	-1.652	1.710
36	-1.333	1.778
41	-1.013	1.739
46	-0.693	1.347
51	-0.374	1.547
56	-0.054	2.464
61	0.266	77.137
66	0.585	1.658
71	0.905	1.712
76	1.224	1.725
81	1.544	1.722
86	1.864	1.598
91	2.183	1.928
96	2.503	2.087
101	2.823	64.662
106	3.142	127.141
111	3.462	172.036
116	3.781	208.918
121	4.101	245.299
126	4.421	261.607
131	4.740	273.069
136	5.060	288.188
141	5.380	303.520
146	5.699	313.220
151	6.019	316.868
156	6.339	324.432
161	6.658	329.376
166	6.978	334.431
171	7.297	335.685
176	7.617	342.922
181	7.937	351.233
186	8.256	350.063
191	8.576	347.608
196	8.896	345.993
201	9.215	343.784
206	9.535	338.324
211	9.854	334.452
216	10.174	330.944
221	10.494	325.854
226	10.813	324.451
231	11.133	318.889
236	11.453	318.060
241	11.772	314.376
246	12.092	314.326
251	12.411	311.232
256	12.731	307.075
261	13.051	305.832
266	13.370	301.206
271	13.690	299.986
276	14.010	295.297
281	14.329	290.750
286	14.649	287.405
291	14.968	283.714
296	15.288	281.920
301	15.608	279.487
306	15.927	276.860
311	16.247	273.155
316	16.567	267.641
321	16.886	262.153
326	17.206	256.650
331	17.525	250.376
336	17.845	245.175
341	18.165	239.691
346	18.484	234.878
351	18.804	228.761
356	19.124	223.315
361	19.443	219.635
366	19.763	218.075
371	20.083	215.803
376	20.402	211.828
381	20.722	211.590
386	21.041	211.144
391	21.361	216.787
396	21.681	233.949
401	22.000	324.786
406	22.320	6498.609
411	22.640	662.026
416	22.959	245.974
421	23.279	205.758
426	23.598	190.208
431	23.918	186.992
436	24.238	182.842
441	24.557	179.706
446	24.877	178.217
451	25.197	182.581
456	25.516	214.816
461	25.836	2713.655
466	26.155	246.459
471	26.475	175.361
476	26.795	163.480
481	27.114	160.348
486	27.434	157.964
491	27.754	154.920
496	28.073	157.407
501	28.393	153.425
506	28.712	151.178
511	29.032	147.688
516	29.352	147.577
521	29.671	145.105
526	29.991	143.849
531	30.311	141.893
536	30.630	140.587
541	30.950	140.206
546	31.270	139.745
551	31.589	140.507
556	31.909	140.418
561	32.228	140.147
566	32.548	138.400
571	32.868	135.511
576	33.187	135.323
581	33.507	133.864
586	33.827	131.799
591	34.146	131.225
596	34.466	130.875
601	34.785	130.831
606	35.105	131.075
611	35.425	133.556
616	35.744	137.246
621	36.064	151.312
626	36.384	182.535
631	36.703	612.775
636	37.023	1459.632
641	37.342	187.026
646	37.662	144.063
651	37.982	131.052
656	38.301	127.207
661	38.621	124.166
666	38.941	122.191
671	39.260	121.342
676	39.580	121.131
681	39.899	121.280
686	40.219	120.497
691	40.539	118.834
696	40.858	117.249
701	41.178	116.383
706	41.498	116.371
711	41.817	116.694
716	42.137	117.520
721	42.456	121.973
726	42.776	133.492
731	43.096	186.994
736	43.415	2777.071
741	43.735	339.536
746	44.055	144.654
751	44.374	122.109
756	44.694	115.764
761	45.014	117.482
766	45.333	195.879
771	45.653	300.973
776	45.972	112.103
781	46.292	103.795
786	46.612	101.053
791	46.931	99.649
796	47.251	98.247
801	47.571	97.345
806	47.890	96.544
811	48.210	96.372
816	48.529	94.181
821	48.849	93.246
826	49.169	91.584
831	49.488	90.235
836	49.808	89.550
841	50.128	88.533
846	50.447	88.868
851	50.767	87.436
856	51.086	86.839
861	51.406	86.402
866	51.726	85.967
871	52.045	88.955
876	52.365	88.727
881	52.685	95.702
886	53.004	360.705
891	53.324	127.663
896	53.643	88.917
901	53.963	84.306
906	54.283	84.064
911	54.602	81.761
916	54.922	81.047
921	55.242	81.252
926	55.561	81.010
931	55.881	81.133
936	56.200	81.881
941	56.520	80.355
946	56.840	80.324
951	57.159	81.571
956	57.479	83.791
961	57.799	97.434
966	58.118	373.551
971	58.438	267.138
976	58.758	93.901
981	59.077	84.474
986	59.397	86.748
991	59.716	152.757
996	60.036	417.126
1001	60.356	85.517
1006	60.675	74.195
1011	60.995	70.518
1016	61.315	68.909
1021	61.634	66.271
1026	61.954	65.922
1031	62.273	65.184
1036	62.593	64.628
1041	62.913	63.351
1046	63.232	62.205
1051	63.552	61.366
1056	63.872	62.505
1061	64.191	60.992
1066	64.511	60.416
1071	64.830	59.500
1076	65.150	60.548
1081	65.470	60.895
1086	65.789	68.077
1091	66.109	166.401
1096	66.429	313.688
1101	66.748	68.301
1106	67.068	56.153
1111	67.387	52.764
1116	67.707	51.036
1121	68.027	50.674
1126	68.346	49.013
1131	68.666	47.257
1136	68.986	46.198
1141	69.305	45.419
1146	69.625	45.370
1151	69.945	45.158
1156	70.264	46.798
1161	70.584	64.583
1166	70.903	584.842
1171	71.223	56.378
1176	71.543	43.203
1181	71.862	40.775
1186	72.182	38.599
1191	72.502	36.917
1196	72.821	36.008
1201	73.141	34.954
1206	73.460	34.077
1211	73.780	33.018
1216	74.100	32.302
1221	74.419	31.669
1226	74.739	30.866
1231	75.059	29.793
1236	75.378	29.541
1238	75.506	29.204